Wavelength(nm), k 
250,2.296
260,2.360
270,2.487
280,2.585
290,2.697
300,2.808
310,2.915
320,3.022
330,3.135
340,3.243
350,3.349
360,3.458
370,3.561
380,3.672
390,3.780
400,3.885
410,3.996
420,4.122
430,4.221
440,4.342
450,4.446
460,4.533
470,4.656
480,4.751
490,4.859
500,4.969
510,5.086
520,5.172
530,5.270
540,5.348
550,5.430
560,5.532
570,5.626
580,5.735
590,5.857
600,5.953
610,6.022
620,6.093
630,6.202
640,6.266
650,6.352
660,6.430
670,6.508
680,6.583
690,6.656
700,6.727
710,6.805
720,6.858
730,6.896
740,6.955
750,7.002
760,7.037
770,7.050
780,7.056
790,7.047
800,7.020
810,6.974
820,6.949
830,6.864
840,6.789
850,6.702
860,6.694
870,6.676
880,6.736
890,6.666
900,6.541