Wavelength(nm),k
250,1.74458
260.83333,1.80525
271.66667,1.87655
282.5,1.95868
293.33333,2.04777
304.16667,2.14214
315,2.23188
325.83333,2.32421
336.66667,2.41984
347.5,2.5128
358.33333,2.59916
369.16667,2.69626
380,2.81353
390.83333,2.91802
401.66667,3.01671
412.5,3.10369
423.33333,3.19261
434.16667,3.27925
445,3.36265
455.83333,3.4387
466.66667,3.50897
477.5,3.57948
488.33333,3.64353
499.16667,3.71538
510,3.7772
520.83333,3.84409
531.66667,3.89227
542.5,3.94865
553.33333,3.99648
564.16667,4.05014
575,4.10136
585.83333,4.14518
596.66667,4.18769
607.5,4.23552
618.33333,4.26807
629.16667,4.29734
640,4.33555
650.83333,4.36993
661.66667,4.39899
672.5,4.4196
683.33333,4.45171
694.16667,4.4619
705,4.49482
715.83333,4.52069
726.66667,4.5614
737.5,4.56462
748.33333,4.58974
759.16667,4.60937
770,4.64335
780.83333,4.66472
791.66667,4.69161
802.5,4.71813
813.33333,4.73961
824.16667,4.7706
835,4.77868
845.83333,4.81696
856.66667,4.83248
867.5,4.86283
878.33333,4.87317
889.16667,4.89205
900,4.76589
