Wavelength(nm),k
206.63333,1.71
210.13559,1.72
213.75862,1.72
217.50877,1.72
221.39285,1.73
225.41818,1.74
229.59259,1.76
233.92452,1.78
238.42307,1.81
243.09803,1.85
247.96,1.9
253.0204,1.95
258.29166,2
263.78723,2.05
269.52173,2.09
275.51111,2.14
281.77272,2.19
288.32558,2.24
295.19047,2.3
302.39024,2.35
309.94999,2.4
317.89743,2.45
326.26315,2.5
335.08107,2.55
344.38888,2.59
354.22856,2.64
364.64705,2.68
375.69696,2.72
387.43749,2.77
399.93548,2.85
413.26666,2.93
427.51723,3.02
442.78571,3.1
459.18518,3.18
476.84614,3.26
495.91999,3.3
516.58332,3.33
539.04347,3.33
563.54544,3.32
590.38094,3.3
619.89999,3.3
652.5263,3.33
688.77776,3.37
729.2941,3.4
774.87499,3.44
826.53332,3.48
885.57141,3.52
953.69229,3.56
1033.16665,3.58
1127.09089,3.58
1239.79998,3.62
