Wavelength(nm),k
206.63,2.416
210.14,2.44379
213.76,2.47939
217.51,2.53481
221.39,2.60155
225.42,2.64488
229.59,2.65312
233.92,2.63836
238.42,2.64479
243.10,2.68481
247.96,2.75064
253.02,2.82882
258.29,2.92837
263.79,3.05516
269.52,3.20776
275.51,3.39205
281.77,3.62815
288.33,3.92319
295.19,4.13019
302.39,3.97615
309.95,3.64345
317.90,3.32317
326.26,3.06902
335.08,2.86218
344.39,2.68991
354.23,2.54495
364.65,2.43008
375.70,2.31879
387.44,2.20998
399.94,2.13372
413.27,2.10869
427.52,2.1206
442.79,2.15659
459.19,2.21122
476.85,2.28035
495.92,2.28517
516.58,1.96177
539.04,1.78858
563.55,1.74682
590.38,1.80281
619.90,1.37837
652.53,0.82868
688.78,0.61132
729.29,0.48493
774.87,0.41627
826.53,0.34447
