Wavelength(nm),k
206.63,2.11156
210.14,2.0839
213.76,2.10187
217.51,2.16303
221.39,2.24788
225.42,2.34385
229.59,2.44918
233.92,2.55542
238.42,2.64646
243.10,2.73222
247.96,2.87148
253.02,3.08079
258.29,3.34857
263.79,3.57501
269.52,3.58114
275.51,3.44469
281.77,3.04214
288.33,2.47824
295.19,2.09868
302.39,1.90342
309.95,1.79858
317.90,1.74342
326.26,1.71862
335.08,1.71526
344.39,1.72777
354.23,1.75364
364.65,1.78983
375.70,1.83617
387.44,1.89089
399.94,1.9566
413.27,2.03378
427.52,2.12921
442.79,2.20755
459.19,2.01582
476.85,1.88529
495.92,1.78632
516.58,1.28285
539.04,0.99076
563.55,0.81071
590.38,0.71184
619.90,0.63355
652.53,0.57201
688.78,0.5302
729.29,0.49291
774.87,0.46314
826.53,0.43205
