Wavelength(nm), R
362.975 , 0.591412 
372.838 , 0.572643 
383.253 , 0.531592 
394.266 , 0.498517 
405.931 , 0.473978 
415.771 , 0.457675 
426.101 , 0.443933 
439.758 , 0.428953 
448.381 , 0.420993 
460.418 , 0.411277 
473.119 , 0.402451 
483.115 , 0.396474 
493.541 , 0.390827 
504.428 , 0.38552 
515.807 , 0.380444 
527.710 , 0.375768 
540.175 , 0.371253 
553.244 , 0.36705 
566.961 , 0.363003 
581.375 , 0.359251 
591.399 , 0.356821 
601.774 , 0.354552 
612.520 , 0.352263 
623.657 , 0.350077 
635.206 , 0.347996 
647.191 , 0.345885 
659.637 , 0.343963 
672.571 , 0.341981 
686.023 , 0.340252 
700.023 , 0.338577 
714.607 , 0.336833 
729.811 , 0.335358 
745.677 , 0.333898 
762.247 , 0.332391 
779.571 , 0.331002 
797.701 , 0.329453 
816.694 , 0.32796 
855.0 , 0.325305 
885.0 , 0.323299 
918.0 , 0.321283 
953.0 , 0.319364 
992.0 , 0.317543 
1033.0 , 0.315714 
1078.0 , 0.314093 
1120.0 , 0.312574