Wavelength(nm),k
206.63,0.86
216.11,0.92
226.50,1.01
237.94,1.12
250.60,1.2
264.68,1.24
280.43,1.38
298.18,1.69
318.33,2
341.39,2.26
368.07,2.61
399.26,3.04
436.23,3.27
480.74,3.25
535.37,3.12
604.01,2.94
692.83,2.77
812.28,2.67
981.51,1.64
1239.80,1.1
